# theta err counts-2 err counts-1 err counts-0 err counts1 err counts1 err
-0.633856 0.000000 103.537566 55.375791 286.462434 113.171687 3812.000000 227.397279 148.462851 58.465318 60.537149 17.949804
-0.603856 0.000000 124.386513 64.597491 280.613487 107.497601 3755.000000 233.838549 148.576116 69.648474 49.423884 16.523575
-0.573856 0.000000 189.307884 79.245058 283.692116 111.821336 3726.000000 229.005982 141.596820 62.001558 56.403180 20.541758
-0.543856 0.000000 208.380191 82.104499 356.619809 118.385603 3624.000000 227.301994 123.352754 52.692793 40.647246 16.900618
-0.513856 0.000000 228.881463 83.553495 432.118537 132.298615 3555.000000 218.897283 135.102245 54.744358 42.897755 16.188619
-0.483856 0.000000 334.780056 102.884097 482.219944 133.240288 3375.000000 212.157270 149.043275 55.816398 36.956725 14.437781
-0.453856 0.000000 334.336257 95.358755 603.663743 152.793365 3316.000000 220.885614 139.000000 56.641817 47.000000 13.097424
-0.423856 0.000000 396.428785 105.762289 606.571215 149.594501 3125.000000 208.723242 174.087618 74.420202 44.912382 18.719112
-0.393856 0.000000 457.176932 106.991168 787.823068 173.094251 2961.000000 206.457911 176.064744 71.990789 34.935256 16.168207
-0.363856 0.000000 577.879890 115.682620 877.120110 176.636054 2765.000000 202.939922 157.360459 73.973122 47.639541 20.930865
-0.333856 0.000000 631.433791 107.774851 1085.566209 202.826922 2558.000000 189.518713 174.597960 71.056400 25.402040 13.546647
-0.303856 0.000000 611.833372 113.723434 1231.166628 207.795369 2420.000000 187.228435 168.291117 59.466209 52.708883 16.533257
-0.273856 0.000000 510.562458 101.186270 1332.437542 210.787927 2327.000000 182.145499 194.484932 72.823157 40.515068 15.334788
-0.243856 0.000000 379.570483 93.052384 1535.429517 219.482098 2275.000000 185.243856 212.482053 66.131249 35.517947 13.569646
-0.213856 0.000000 262.425798 79.978277 2038.574202 243.375772 1880.000000 171.336638 223.848188 76.743523 29.151812 15.345645
-0.183856 0.000000 198.141092 69.891980 1983.858908 240.201980 1909.000000 175.967860 246.484472 79.773029 42.515528 19.108055
-0.153856 0.000000 146.333694 64.626565 1728.666306 223.723661 2177.000000 187.663460 322.625654 91.567991 46.374346 21.745815
-0.123856 0.000000 97.789690 47.598408 1547.210310 214.966465 2396.000000 195.840512 375.897235 88.534660 36.102765 15.453998
-0.093856 0.000000 83.373622 50.408779 1373.626378 201.005707 2584.000000 198.895067 442.980673 90.980883 29.019327 15.296555
-0.063856 0.000000 70.313913 42.813524 1068.686087 187.133343 2767.000000 204.932643 523.617125 105.708684 37.382875 17.291304
-0.033856 0.000000 97.885088 51.970744 859.114912 149.000329 2865.000000 210.200301 534.943555 122.662585 66.056445 27.254161
-0.003856 0.000000 44.309802 30.342103 725.690198 153.696446 2902.000000 211.388458 729.481602 103.897463 47.518398 16.100074
0.026144 0.000000 53.743527 38.172942 611.256473 141.577709 2853.000000 208.564259 802.571417 127.874809 67.428583 26.773930
0.056144 0.000000 52.758315 38.670746 457.241685 121.253685 2840.000000 213.251787 998.974908 166.115478 68.025092 29.597904
0.086144 0.000000 50.700381 38.447308 408.299619 117.448928 2761.000000 212.270752 1197.447733 165.426048 62.552267 21.902427
0.116144 0.000000 54.668351 41.532266 333.331649 99.716550 2430.000000 198.786012 1488.104582 168.833857 90.895418 29.141368
0.146144 0.000000 49.808955 40.814223 291.191045 97.953309 2322.000000 189.181978 1660.700744 168.043569 104.299256 28.615511
0.176144 0.000000 49.284764 39.071214 249.715236 100.440150 2236.000000 186.507679 1750.491585 178.899247 174.508415 35.825397
0.206144 0.000000 46.857694 34.603944 223.142306 90.516705 2184.000000 178.521091 1814.263182 185.932897 125.736818 30.467286
0.236144 0.000000 32.524500 28.002270 202.475500 86.512316 2451.000000 189.097171 1495.825900 196.537867 146.174100 36.981807
0.266144 0.000000 57.867862 44.233861 205.132138 88.827800 2469.000000 187.040135 1380.059993 182.005526 204.940007 40.750043
0.296144 0.000000 35.661192 29.333133 194.338808 85.326180 2540.000000 189.931149 1411.710465 190.631446 339.289535 56.289938
0.326144 0.000000 57.855082 43.380295 178.144918 78.370135 2463.000000 195.301706 1167.415619 180.853726 398.584381 53.987337
0.356144 0.000000 46.436849 34.827196 172.563151 84.700058 2769.000000 204.744995 967.434129 149.545144 432.565871 56.047133
0.386144 0.000000 53.431350 42.493345 130.568650 70.208460 2831.000000 200.021756 800.556167 149.440098 591.443833 57.374739
0.416144 0.000000 36.297214 27.544384 155.702786 83.699348 2899.000000 201.933302 714.512031 135.220249 623.487969 53.104216
0.446144 0.000000 32.164005 27.807474 146.835995 82.683054 3107.000000 210.051420 627.148430 108.345629 583.851570 53.047709
0.476144 0.000000 50.649830 37.580212 145.350170 76.582065 3222.000000 213.373863 588.451172 113.598329 534.548828 49.766532
0.506144 0.000000 54.893805 41.925625 129.106195 68.982566 3394.000000 220.738859 453.402035 93.124208 400.597965 41.968922
0.536144 0.000000 50.236454 35.751354 129.763546 69.441746 3673.000000 230.082915 383.307208 83.060248 373.692792 40.896757
0.566144 0.000000 57.065117 41.194431 131.934883 77.104787 3751.000000 235.460209 362.447602 82.563506 259.552398 34.365555
0.596144 0.000000 53.293555 41.712039 103.706445 65.852522 3708.000000 222.724708 334.196354 74.340218 226.803646 31.750519
0.626144 0.000000 40.998220 32.424483 118.001780 71.520002 3927.000000 237.652386 284.518533 70.937952 161.481467 27.192045
0.656144 0.000000 52.746156 43.175610 99.253844 60.599448 3906.000000 243.101782 267.400501 76.116608 138.599499 26.872577
0.686144 0.000000 40.147856 34.658892 118.852144 72.582864 3814.000000 229.800559 248.472480 74.241654 89.527520 19.840528
0.716144 0.000000 46.517006 37.091424 117.482994 66.786114 3896.000000 241.150871 223.781581 64.415782 89.218419 21.162930
0.746144 0.000000 41.231081 30.576514 79.768919 50.371231 3945.000000 244.929768 198.645412 67.518416 72.354588 20.694337
0.776144 0.000000 55.543578 42.613371 87.456422 57.129997 4078.000000 242.343741 179.059459 63.003893 70.940541 19.818806
0.806144 0.000000 49.882734 36.275488 120.117266 75.740708 4080.000000 245.849160 183.810565 72.865182 61.189435 17.956826
0.836144 0.000000 44.623574 31.398790 113.376426 68.721789 4164.000000 251.373443 155.146319 66.813375 52.853681 20.863697
0.866144 0.000000 47.501210 37.823736 108.498790 65.494525 3966.000000 239.967756 174.286111 69.189399 60.713889 21.067998
0.896144 0.000000 44.949334 33.618020 110.050666 72.643918 4149.000000 248.646111 172.139995 70.382402 35.860005 17.760937
0.926144 0.000000 61.833751 42.167394 137.166249 81.210562 4043.000000 245.128557 152.756446 60.810740 61.243554 20.168137
0.956144 0.000000 47.194989 37.230152 90.805011 62.883071 4019.000000 243.759429 170.359938 77.049289 41.640062 20.994655
0.986144 0.000000 37.216874 30.819504 93.783126 62.415767 4105.000000 248.453591 134.604936 59.231057 38.395064 13.256262
1.016144 0.000000 43.623825 33.361351 100.376175 64.752692 4048.000000 249.909871 135.038485 56.717962 36.961515 12.860595
1.046144 0.000000 37.238426 31.501925 105.761574 69.978933 4234.000000 252.987107 158.229648 63.938915 48.770352 14.382993
1.076144 0.000000 45.670038 35.955167 106.329962 68.075971 4078.000000 248.946712 142.438449 65.865617 34.561551 14.072193
1.106144 0.000000 46.507418 33.541546 116.492582 72.843452 4127.000000 245.678805 134.196201 56.816170 54.803799 15.817410
