# theta err counts-2 err counts-1 err counts-0 err counts1 err counts1 err
-0.633856 0.000000 117.341998 65.814570 283.658002 110.925732 3818.000000 232.129330 181.999928 42.271362 66.000072 17.456510
-0.603856 0.000000 148.116927 77.634908 277.883073 106.088832 3761.000000 237.838549 136.999638 46.037557 72.000362 18.699190
-0.573856 0.000000 216.220146 95.623399 282.779854 111.388666 3735.000000 234.884297 133.999026 46.336323 73.000974 19.046084
-0.543856 0.000000 250.429353 96.890688 367.570647 121.352851 3632.000000 231.751484 96.999698 37.048967 60.000302 16.956725
-0.513856 0.000000 282.963249 101.975338 466.036751 142.091585 3561.000000 223.139924 117.999797 35.963914 56.000203 16.418768
-0.483856 0.000000 372.619074 119.120314 480.380926 129.913440 3379.000000 214.889321 145.999996 34.778505 53.000004 16.076063
-0.453856 0.000000 371.904971 115.398161 592.095029 147.171981 3319.000000 223.885614 142.999990 48.257988 49.000010 15.057418
-0.423856 0.000000 450.621368 132.331537 596.378632 142.849325 3134.000000 214.551669 148.999538 48.348027 51.000462 15.846145
-0.393856 0.000000 518.969800 133.596905 749.030200 158.052562 2969.000000 211.336226 143.999629 48.150328 48.000371 15.182789
-0.363856 0.000000 658.902391 147.339497 827.097609 158.364981 2769.000000 205.768349 145.999890 58.209286 53.000110 15.593846
-0.333856 0.000000 763.909409 145.977740 973.090591 176.215080 2563.000000 193.347140 167.999923 44.874800 30.000077 11.939675
-0.303856 0.000000 803.090568 151.957017 1053.909432 179.119896 2426.000000 192.056863 157.999464 43.931797 52.000536 15.507350
-0.273856 0.000000 716.563008 142.356484 1144.436992 181.585866 2333.000000 186.973926 169.999987 51.111765 56.000013 16.639870
-0.243856 0.000000 575.694032 131.111044 1362.305968 193.915657 2282.000000 189.658069 192.999841 41.737292 54.000159 16.376865
-0.213856 0.000000 375.200201 107.026143 1939.799799 223.999290 1883.000000 174.336638 218.000000 44.340945 45.000000 14.904677
-0.183856 0.000000 273.671980 94.032902 1919.328020 220.249508 1914.000000 179.796287 245.999951 59.137140 48.000049 14.746529
-0.153856 0.000000 195.425989 83.868296 1699.574011 216.882229 2183.000000 191.809724 316.999881 60.419467 52.000119 15.489519
-0.123856 0.000000 146.654616 70.453472 1525.345384 210.047268 2405.000000 201.572563 354.999967 72.493710 58.000033 16.871098
-0.093856 0.000000 101.148483 61.784528 1362.851517 192.994629 2591.000000 204.041332 427.999944 61.939591 43.000056 14.350352
-0.063856 0.000000 85.000013 51.956541 1061.999987 182.392400 2777.000000 211.078907 499.999834 65.986753 64.000166 17.405543
-0.033856 0.000000 82.000030 54.227784 899.999970 157.439632 2873.000000 215.078616 524.999767 78.633206 63.000233 17.420079
-0.003856 0.000000 62.000016 41.722333 735.999984 156.107778 2911.000000 216.356576 710.999930 93.570326 61.000070 17.055077
0.026144 0.000000 60.000044 40.319451 617.999956 144.307072 2859.000000 212.806899 813.999966 74.550724 73.000034 18.591998
0.056144 0.000000 48.000291 35.520015 472.999709 126.354001 2843.000000 216.251787 990.999941 96.394981 70.000059 18.287488
0.086144 0.000000 50.000097 37.626857 414.999903 118.098394 2771.000000 217.653084 1160.106558 103.686716 83.893442 22.044097
0.116144 0.000000 58.000077 42.555706 337.999923 103.207447 2433.000000 200.518062 1483.751025 108.723206 96.248975 24.192513
0.146144 0.000000 50.000106 38.173110 307.999894 108.241991 2330.000000 194.596191 1661.661204 111.867080 113.338796 27.318692
0.176144 0.000000 46.000175 38.117307 257.999825 104.209195 2237.000000 187.507679 1778.896478 124.627189 154.103522 34.601934
0.206144 0.000000 40.000011 33.954543 240.999989 97.539417 2190.000000 182.667355 1803.287423 116.454752 155.712577 31.073925
0.236144 0.000000 41.000000 33.631676 217.000000 98.414067 2458.000000 194.339812 1507.963087 106.425343 156.036913 32.293989
0.266144 0.000000 58.000108 42.308818 213.999892 90.502471 2477.000000 192.504237 1378.941325 121.851093 257.058675 46.611747
0.296144 0.000000 46.000206 36.845024 204.999794 92.289761 2545.000000 194.345362 1347.796676 127.718471 395.203324 57.948098
0.326144 0.000000 65.000080 45.968162 172.999920 74.179401 2472.000000 201.276398 1050.740233 125.951590 481.259767 64.720679
0.356144 0.000000 56.000125 39.738973 197.999875 97.661557 2772.000000 207.159208 819.988876 98.758625 532.011124 69.295149
0.386144 0.000000 52.001768 39.755553 144.998232 77.723151 2839.000000 204.672038 654.367908 95.604954 724.632092 69.736251
0.416144 0.000000 53.000004 37.634420 153.999996 83.607761 2907.000000 206.583584 584.235810 82.257955 729.764190 62.754837
0.446144 0.000000 44.000115 34.114101 151.999885 87.591068 3114.000000 215.051420 552.148183 70.317715 677.851817 61.628814
0.476144 0.000000 52.247432 39.350652 173.752568 96.438808 3230.000000 218.934341 527.062360 69.752222 599.937640 55.692731
0.506144 0.000000 47.851249 37.144490 142.148751 77.205193 3400.000000 225.470910 425.105031 62.237576 442.894969 48.759770
0.536144 0.000000 40.530338 29.451433 155.469662 87.080841 3678.000000 233.229179 376.592244 57.216336 409.407756 43.221192
0.566144 0.000000 56.000585 41.388355 150.999415 87.888296 3752.000000 236.460209 344.797015 51.389420 300.202985 39.210877
0.596144 0.000000 63.971043 47.886028 109.028957 69.240020 3712.000000 226.138922 326.000000 46.881722 255.000000 33.943487
0.626144 0.000000 39.591092 33.302746 132.408908 77.923785 3935.000000 241.620505 287.000000 48.187633 204.000000 30.419882
0.656144 0.000000 53.325877 41.863688 112.674123 71.064873 3913.000000 248.248046 281.437331 48.420180 193.562669 30.425048
0.686144 0.000000 38.772963 33.154610 130.227037 82.129398 3821.000000 234.214772 256.126257 47.059966 142.873743 28.508289
0.716144 0.000000 51.000187 38.821416 120.999813 69.109770 3903.000000 245.711349 237.024144 40.438508 130.975856 25.131605
0.746144 0.000000 49.237317 36.177573 89.762683 58.796593 3953.000000 249.758195 202.507641 46.581449 108.492359 26.657302
0.776144 0.000000 37.109596 29.542021 119.890404 78.590152 4085.000000 247.490006 167.485210 42.820483 100.514790 27.477042
0.806144 0.000000 47.016881 34.111742 120.983119 75.216171 4086.000000 249.995424 175.788288 41.241206 64.211712 17.781475
0.836144 0.000000 43.035321 29.932029 122.964679 75.528119 4170.000000 255.519707 139.225694 40.881908 69.774306 21.817337
0.866144 0.000000 51.844400 38.467554 121.155600 78.852965 3972.000000 244.114020 169.815545 41.812133 84.184455 21.497563
0.896144 0.000000 48.000784 36.233641 111.999216 72.915826 4156.000000 253.792376 156.231220 40.459684 50.768780 19.149691
0.926144 0.000000 53.862802 39.702874 148.137198 84.593626 4057.000000 251.705048 143.012433 36.589266 65.987567 19.973666
0.956144 0.000000 47.495247 37.985239 106.504753 73.365287 4025.000000 248.587856 149.244741 41.268024 53.755259 18.479849
0.986144 0.000000 52.000026 41.862196 89.999974 60.316363 4109.000000 251.867805 124.501309 35.466354 68.498691 20.531602
1.016144 0.000000 50.755877 37.227948 115.244123 76.313279 4053.000000 254.324085 135.732757 37.055949 48.267243 15.969622
1.046144 0.000000 42.000827 32.725975 111.999173 74.862765 4242.000000 258.223175 153.000000 38.874687 67.000000 18.098515
1.076144 0.000000 48.000234 36.218792 115.999766 76.049172 4084.000000 253.092976 132.000000 38.777795 48.000000 15.315801
1.106144 0.000000 41.999010 29.221388 135.000990 85.645789 4138.000000 252.061137 133.000000 35.518223 65.000000 17.523716
