# theta err counts-2 err counts-1 err counts-0 err counts1 err counts1 err
-0.624153 0.000000 187.155933 86.338940 367.844067 123.594747 5415.000000 285.069078 158.078861 61.158331 99.921139 28.876417
-0.594153 0.000000 200.844162 87.141621 458.155838 143.234955 5339.000000 278.411686 202.508572 62.933988 84.491428 25.819923
-0.564153 0.000000 281.850467 104.968519 458.149533 143.224679 5111.000000 267.409012 171.080021 65.605944 89.919979 28.948577
-0.534153 0.000000 339.501806 113.944872 490.498194 144.068188 5036.000000 267.372832 176.368282 56.090187 78.631718 20.502546
-0.504153 0.000000 354.658095 112.973461 613.341905 160.084103 5029.000000 264.286093 175.031274 62.136436 70.968726 23.656026
-0.474153 0.000000 469.300570 132.467616 737.699430 172.546383 4809.000000 258.636785 205.581678 64.681245 93.418322 31.080905
-0.444153 0.000000 605.000000 144.169981 827.000000 179.603452 4754.000000 259.964609 194.035376 68.531964 93.964624 27.499334
-0.414153 0.000000 718.489942 157.852118 866.510058 163.693738 4346.000000 251.784584 210.683544 67.603428 92.316456 29.514435
-0.384153 0.000000 817.166856 166.666181 1000.833144 176.862683 4090.000000 245.497159 209.897482 78.946059 95.102518 27.954149
-0.354153 0.000000 889.433403 165.044501 1265.566597 203.294720 3860.000000 237.105715 227.961665 69.641591 121.038335 30.554321
-0.324153 0.000000 1101.397547 184.967020 1438.602453 214.785411 3466.000000 228.576042 241.135095 68.550945 88.864905 24.650650
-0.294153 0.000000 1198.261674 182.287141 1623.738326 228.824891 3217.000000 220.463468 269.346052 82.929435 82.653948 24.454968
-0.264153 0.000000 1038.442667 167.390483 1590.557333 215.860216 3232.000000 220.697612 237.525146 67.314432 84.474854 24.169894
-0.234153 0.000000 776.624655 156.843283 1856.375345 229.341053 3168.000000 220.900850 309.080235 65.199828 85.919765 21.587066
-0.204153 0.000000 563.228596 137.727085 2739.771404 258.931712 2755.000000 212.328781 313.366068 89.669665 69.633932 28.029013
-0.174153 0.000000 370.540226 113.541147 2908.459774 269.597994 2573.000000 202.299118 326.282729 81.632914 86.717271 26.747393
-0.144153 0.000000 281.340885 103.545278 2547.659115 258.374608 2959.000000 216.714772 496.177551 90.832977 74.822449 23.597324
-0.114153 0.000000 201.699004 93.323669 2137.300996 233.854208 3293.000000 231.978487 443.417398 72.464362 88.582602 28.103408
-0.084153 0.000000 152.280786 79.541664 1929.719214 223.221265 3389.000000 237.826812 552.236262 91.550748 111.763738 31.449400
-0.054153 0.000000 125.243699 69.343610 1465.756301 197.697069 3759.000000 240.928371 684.602317 113.665887 100.397683 31.039564
-0.024153 0.000000 112.885507 64.122398 1275.114493 183.114293 3874.000000 246.744311 791.650076 103.772680 101.349924 26.700773
0.005847 0.000000 98.254668 66.352748 1034.745332 177.292525 3971.000000 242.268981 948.625573 132.301250 94.374427 32.121354
0.035847 0.000000 95.494576 62.018964 773.505424 151.929287 3946.000000 247.548243 1200.719432 133.745234 161.280568 38.976429
0.065847 0.000000 85.616213 61.918646 661.383787 147.198255 3905.000000 242.429064 1362.690457 153.151141 133.309543 40.914913
0.095847 0.000000 93.205832 64.124998 523.794168 128.318592 3707.000000 237.835430 1690.272285 169.394443 149.727715 42.544643
0.125847 0.000000 83.074263 57.074516 463.925737 123.408240 3377.000000 229.231615 2109.986431 188.693149 176.013569 47.335532
0.155847 0.000000 80.189184 56.626979 378.810816 115.768900 3071.000000 220.625161 2346.461803 187.169188 206.538197 44.077449
0.185847 0.000000 70.375976 52.403610 385.624024 120.288703 2783.000000 215.596822 2603.218316 214.877449 213.781684 50.841232
0.215847 0.000000 82.619994 57.594444 296.380006 114.090431 2920.000000 205.972399 2436.339648 217.659827 253.660352 48.462722
0.245847 0.000000 87.089931 59.208983 287.910069 109.562310 3232.000000 221.446255 2118.902696 191.433154 280.097304 51.983321
0.275847 0.000000 64.711286 49.430999 297.288714 109.145978 3187.000000 218.222870 1994.406735 186.261943 441.593265 72.592462
0.305847 0.000000 75.818595 55.651191 251.181405 93.996820 3305.000000 227.740871 1840.702996 184.708219 557.297004 77.665539
0.335847 0.000000 83.199484 60.132513 268.800516 105.598903 3816.000000 234.285983 1489.644058 173.218065 672.355942 90.410224
0.365847 0.000000 74.816318 54.955364 252.183682 100.351128 3968.000000 239.997714 1007.358661 137.664343 879.641339 84.265578
0.395847 0.000000 58.099912 44.286921 238.900088 100.357510 3904.000000 240.540705 927.544747 116.882423 1033.455253 75.541879
0.425847 0.000000 99.141957 65.626401 199.858043 93.092016 4068.000000 243.828650 914.818495 104.731088 996.181505 76.378812
0.455847 0.000000 81.844464 57.474204 212.155536 93.688581 4169.000000 250.365958 834.569817 106.797172 899.430183 70.577217
0.485847 0.000000 60.591068 44.975669 214.408932 93.320659 4512.000000 245.177986 763.833444 104.910336 698.166556 64.524941
0.515847 0.000000 79.074719 58.407470 215.925281 94.122374 4724.000000 263.423055 611.068770 93.646098 570.931230 58.238590
0.545847 0.000000 69.653613 50.623742 206.346387 96.092547 4997.000000 265.660552 516.777584 85.711252 523.222416 56.597167
0.575847 0.000000 82.249072 56.118876 192.750928 89.167083 5120.000000 265.936831 476.714287 76.676818 409.285713 43.109421
0.605847 0.000000 92.666705 63.998400 186.333295 94.160606 5206.000000 269.749538 472.126121 72.881511 359.873879 44.409296
0.635847 0.000000 86.294182 57.673317 156.705818 77.426289 5450.000000 274.497441 420.051413 84.563112 284.948587 39.989168
